Time,Extension,Load
(sec),(mm),(N)
0.00000,9.92186,0.00011
0.10000,9.92186,0.00010
0.20000,9.91977,-0.00007
0.30000,9.91144,-0.00094
0.40000,9.90415,-0.00170
0.50000,9.89852,-0.00223
0.60000,9.89269,-0.00285
0.70000,9.88748,-0.00346
0.80000,9.88228,-0.00399
0.90000,9.87727,-0.00461
1.00000,9.87227,-0.00516
1.10000,9.86728,-0.00580
1.20000,9.86227,-0.00645
1.30000,9.85727,-0.00702
1.40000,9.85207,-0.00780
1.50000,9.84707,-0.00845
1.60000,9.84186,-0.00920
1.70000,9.83707,-0.00993
1.80000,9.83228,-0.01067
1.90000,9.82727,-0.01139
2.00000,9.82227,-0.01224
2.10000,9.81728,-0.01301
2.20000,9.81207,-0.01388
2.30000,9.80707,-0.01468
2.40000,9.80207,-0.01555
2.50000,9.79707,-0.01643
2.60000,9.79207,-0.01730
2.70000,9.78707,-0.01813
2.80000,9.78228,-0.01901
2.90000,9.77727,-0.01991
3.00000,9.77207,-0.02092
3.10000,9.76686,-0.02191
3.20000,9.76165,-0.02291
3.30000,9.75665,-0.02392
3.40000,9.75207,-0.02482
3.50000,9.74707,-0.02574
3.60000,9.74186,-0.02688
3.70000,9.73686,-0.02783
3.80000,9.73186,-0.02891
3.90000,9.72644,-0.02998
4.00000,9.72165,-0.03107
4.10000,9.71665,-0.03217
4.20000,9.71186,-0.03317
4.30000,9.70727,-0.03417
4.40000,9.70227,-0.03528
4.50000,9.69707,-0.03642
4.60000,9.69186,-0.03765
4.70000,9.68665,-0.03882
4.80000,9.68165,-0.03996
4.90000,9.67665,-0.04119
5.00000,9.67207,-0.04226
5.10000,9.66707,-0.04342
5.20000,9.66228,-0.04462
5.30000,9.65707,-0.04580
5.40000,9.65207,-0.04705
5.50000,9.64686,-0.04840
5.60000,9.64207,-0.04966
5.70000,9.63707,-0.05095
5.80000,9.63228,-0.05211
5.90000,9.62728,-0.05341
6.00000,9.62248,-0.05465
6.10000,9.61707,-0.05603
6.20000,9.61186,-0.05748
6.30000,9.60665,-0.05892
6.40000,9.60186,-0.06020
6.50000,9.59707,-0.06148
6.60000,9.59228,-0.06273
6.70000,9.58727,-0.06416
6.80000,9.58248,-0.06546
6.90000,9.57686,-0.06704
7.00000,9.57144,-0.06859
7.10000,9.56644,-0.07008
7.20000,9.56165,-0.07141
7.30000,9.55686,-0.07282
7.40000,9.55207,-0.07414
7.50000,9.54707,-0.07558
7.60000,9.54248,-0.07691
7.70000,9.53707,-0.07852
7.80000,9.53144,-0.08024
7.90000,9.52665,-0.08177
8.00000,9.52165,-0.08318
8.10000,9.51686,-0.08471
8.20000,9.51207,-0.08612
8.30000,9.50686,-0.08761
8.40000,9.50227,-0.08910
8.50000,9.49728,-0.09061
8.60000,9.49207,-0.09229
8.70000,9.48665,-0.09405
8.80000,9.48165,-0.09564
8.90000,9.47686,-0.09728
9.00000,9.47207,-0.09877
9.10000,9.46707,-0.10045
9.20000,9.46228,-0.10197
9.30000,9.45686,-0.10377
9.40000,9.45165,-0.10561
9.50000,9.44665,-0.10728
9.60000,9.44186,-0.10885
9.70000,9.43728,-0.11040
9.80000,9.43228,-0.11200
9.90000,9.42728,-0.11379
10.00000,9.42248,-0.11531
10.02000,9.42144,-0.11567
10.02200,9.42144,-0.11570
10.12200,9.41998,-0.11604
10.22200,9.41998,-0.11531
10.32200,9.41998,-0.11456
10.42200,9.41998,-0.11391
10.52200,9.41998,-0.11327
10.62200,9.41998,-0.11272
10.72200,9.41998,-0.11219
10.82200,9.41998,-0.11169
10.92200,9.41998,-0.11122
11.02200,9.41998,-0.11070
11.12200,9.41998,-0.11025
11.22200,9.41998,-0.10985
11.32200,9.42040,-0.10937
11.42200,9.42040,-0.10898
11.52200,9.42040,-0.10853
11.62200,9.42061,-0.10808
11.72200,9.42061,-0.10768
11.82200,9.42061,-0.10730
11.92200,9.42082,-0.10690
12.02200,9.42082,-0.10650
12.12200,9.42082,-0.10615
12.22200,9.42082,-0.10579
12.32200,9.42103,-0.10544
12.42200,9.42103,-0.10508
12.52200,9.42103,-0.10466
12.62200,9.42103,-0.10433
12.72200,9.42123,-0.10402
12.82200,9.42123,-0.10370
12.92200,9.42123,-0.10335
13.02200,9.42123,-0.10304
13.12200,9.42123,-0.10276
13.22200,9.42123,-0.10244
13.32200,9.42123,-0.10217
13.42200,9.42123,-0.10183
13.52200,9.42144,-0.10153
13.62200,9.42144,-0.10126
13.72200,9.42144,-0.10100
13.82200,9.42144,-0.10072
13.92200,9.42144,-0.10048
14.02200,9.42144,-0.10017
14.12200,9.42144,-0.09991
14.22200,9.42144,-0.09961
14.32200,9.42144,-0.09939
14.42200,9.42144,-0.09914
14.52200,9.42144,-0.09884
14.62200,9.42144,-0.09864
14.72200,9.42144,-0.09839
14.82200,9.42144,-0.09812
14.92200,9.42144,-0.09788
15.02200,9.42144,-0.09760
15.12200,9.42144,-0.09738
15.22200,9.42144,-0.09716
15.32200,9.42144,-0.09694
15.42200,9.42144,-0.09667
15.52200,9.42144,-0.09642
15.62200,9.42144,-0.09620
15.72200,9.42144,-0.09596
15.82200,9.42144,-0.09575
15.92200,9.42144,-0.09556
16.02200,9.42144,-0.09530
16.12200,9.42144,-0.09508
16.22200,9.42144,-0.09486
16.32200,9.42144,-0.09465
16.42200,9.42144,-0.09443
16.52200,9.42144,-0.09420
16.62200,9.42144,-0.09400
16.72200,9.42144,-0.09379
16.82200,9.42144,-0.09358
16.92200,9.42144,-0.09337
17.02200,9.42144,-0.09316
17.12200,9.42144,-0.09298
17.22200,9.42144,-0.09278
17.32200,9.42144,-0.09256
17.42200,9.42144,-0.09237
17.52200,9.42144,-0.09215
17.62200,9.42144,-0.09197
17.72200,9.42144,-0.09175
17.82200,9.42144,-0.09154
17.92200,9.42144,-0.09138
18.02200,9.42144,-0.09116
18.12200,9.42144,-0.09100
18.22200,9.42144,-0.09082
18.32200,9.42144,-0.09062
18.42200,9.42144,-0.09038
18.52200,9.42144,-0.09022
18.62200,9.42144,-0.09007
18.72200,9.42144,-0.08985
18.82200,9.42144,-0.08966
18.92200,9.42144,-0.08948
19.02200,9.42144,-0.08934
19.12200,9.42144,-0.08917
19.22200,9.42144,-0.08896
19.32200,9.42144,-0.08880
19.42200,9.42144,-0.08864
19.52200,9.42144,-0.08845
19.62200,9.42144,-0.08828
19.72200,9.42144,-0.08809
19.82200,9.42144,-0.08797
19.92200,9.42144,-0.08780
20.02200,9.42144,-0.08757
20.12200,9.42144,-0.08747
20.22200,9.42144,-0.08730
20.32200,9.42144,-0.08707
20.42200,9.42144,-0.08696
20.52200,9.42144,-0.08678
20.62200,9.42144,-0.08662
20.72200,9.42144,-0.08647
20.82200,9.42144,-0.08628
20.92200,9.42144,-0.08613
21.02200,9.42144,-0.08595
21.12200,9.42144,-0.08583
21.22200,9.42144,-0.08567
21.32200,9.42144,-0.08548
21.42200,9.42144,-0.08536
21.52200,9.42144,-0.08514
21.62200,9.42144,-0.08503
21.72200,9.42144,-0.08491
21.82200,9.42144,-0.08473
21.92200,9.42144,-0.08460
22.02200,9.42144,-0.08443
22.12200,9.42144,-0.08432
22.22200,9.42144,-0.08411
22.32200,9.42144,-0.08400
22.42200,9.42144,-0.08381
22.52200,9.42144,-0.08371
22.62200,9.42144,-0.08355
22.72200,9.42144,-0.08341
22.82200,9.42144,-0.08325
22.92200,9.42144,-0.08311
23.02200,9.42144,-0.08294
23.12200,9.42144,-0.08283
23.22200,9.42144,-0.08270
23.32200,9.42144,-0.08258
23.42200,9.42144,-0.08242
23.52200,9.42144,-0.08226
23.62200,9.42144,-0.08213
23.72200,9.42144,-0.08202
23.82200,9.42144,-0.08186
23.92200,9.42144,-0.08177
24.02200,9.42144,-0.08159
24.12200,9.42144,-0.08146
24.22200,9.42144,-0.08133
24.32200,9.42144,-0.08120
24.42200,9.42144,-0.08105
24.52200,9.42144,-0.08090
24.62200,9.42144,-0.08082
24.72200,9.42144,-0.08070
24.82200,9.42144,-0.08057
24.92200,9.42144,-0.08044
25.02200,9.42144,-0.08029
25.12200,9.42144,-0.08014
25.22200,9.42144,-0.08004
25.32200,9.42144,-0.07994
25.42200,9.42144,-0.07977
25.52200,9.42144,-0.07959
25.62200,9.42144,-0.07953
25.72200,9.42144,-0.07937
25.82200,9.42144,-0.07929
25.92200,9.42144,-0.07913
26.02200,9.42144,-0.07905
26.12200,9.42144,-0.07890
26.22200,9.42144,-0.07879
26.32200,9.42144,-0.07869
26.42200,9.42144,-0.07856
26.52200,9.42144,-0.07839
26.62200,9.42144,-0.07833
26.72200,9.42144,-0.07821
26.82200,9.42144,-0.07807
26.92200,9.42144,-0.07795
27.02200,9.42144,-0.07780
27.12200,9.42144,-0.07772
27.22200,9.42144,-0.07763
27.32200,9.42144,-0.07748
27.42200,9.42144,-0.07739
27.52200,9.42144,-0.07728
27.62200,9.42144,-0.07714
27.72200,9.42144,-0.07703
27.82200,9.42144,-0.07687
27.92200,9.42144,-0.07682
28.02200,9.42144,-0.07668
28.12200,9.42144,-0.07660
28.22200,9.42144,-0.07648
28.32200,9.42144,-0.07638
28.42200,9.42144,-0.07625
28.52200,9.42144,-0.07616
28.62200,9.42144,-0.07603
28.72200,9.42144,-0.07595
28.82200,9.42144,-0.07580
28.92200,9.42144,-0.07572
29.02200,9.42144,-0.07563
29.12200,9.42144,-0.07555
29.22200,9.42144,-0.07538
29.32200,9.42144,-0.07529
29.42200,9.42144,-0.07516
29.52200,9.42144,-0.07508
29.62200,9.42144,-0.07500
29.72200,9.42144,-0.07487
29.82200,9.42144,-0.07476
29.92200,9.42144,-0.07466
30.02200,9.42144,-0.07451
30.12200,9.42144,-0.07446
30.22200,9.42144,-0.07435
30.32200,9.42144,-0.07430
30.42200,9.42144,-0.07415
30.52200,9.42144,-0.07403
30.62200,9.42144,-0.07396
30.72200,9.42144,-0.07385
30.82200,9.42144,-0.07375
30.92200,9.42144,-0.07365
31.02200,9.42144,-0.07352
31.12200,9.42144,-0.07347
31.22200,9.42144,-0.07333
31.32200,9.42144,-0.07324
31.42200,9.42144,-0.07316
31.52200,9.42144,-0.07307
31.62200,9.42144,-0.07296
31.72200,9.42144,-0.07288
31.82200,9.42144,-0.07275
31.92200,9.42144,-0.07269
32.02200,9.42144,-0.07258
32.12200,9.42144,-0.07246
32.22200,9.42144,-0.07238
32.32200,9.42144,-0.07232
32.42200,9.42144,-0.07219
32.52200,9.42144,-0.07208
32.62200,9.42144,-0.07199
32.72200,9.42144,-0.07196
32.82200,9.42144,-0.07184
32.92200,9.42144,-0.07176
33.02200,9.42144,-0.07167
33.12200,9.42144,-0.07153
33.22200,9.42144,-0.07144
33.32200,9.42144,-0.07133
33.42200,9.42144,-0.07129
33.52200,9.42144,-0.07118
33.62200,9.42144,-0.07114
33.72200,9.42144,-0.07103
33.82200,9.42144,-0.07090
33.92200,9.42144,-0.07084
34.02200,9.42144,-0.07075
34.12200,9.42144,-0.07067
34.22200,9.42144,-0.07057
34.32200,9.42144,-0.07053
34.42200,9.42144,-0.07041
34.52200,9.42144,-0.07031
34.62200,9.42144,-0.07025
34.72200,9.42144,-0.07016
34.82200,9.42144,-0.07009
34.92200,9.42144,-0.06999
35.02200,9.42144,-0.06991
35.12200,9.42144,-0.06984
35.22200,9.42144,-0.06971
35.32200,9.42144,-0.06963
35.42200,9.42144,-0.06957
35.52200,9.42144,-0.06946
35.62200,9.42144,-0.06941
35.72200,9.42144,-0.06932
35.82200,9.42144,-0.06919
35.92200,9.42144,-0.06915
36.02200,9.42144,-0.06904
36.12200,9.42144,-0.06901
36.22200,9.42144,-0.06891
36.32200,9.42144,-0.06885
36.42200,9.42144,-0.06873
36.52200,9.42144,-0.06864
36.62200,9.42144,-0.06859
36.72200,9.42144,-0.06849
36.82200,9.42144,-0.06842
36.92200,9.42144,-0.06835
37.02200,9.42144,-0.06828
37.12200,9.42144,-0.06820
37.22200,9.42144,-0.06814
37.32200,9.42144,-0.06800
37.42200,9.42144,-0.06798
37.52200,9.42144,-0.06787
37.62200,9.42144,-0.06780
37.72200,9.42144,-0.06773
37.82200,9.42144,-0.06762
37.92200,9.42144,-0.06756
38.02200,9.42144,-0.06747
38.12200,9.42144,-0.06740
38.22200,9.42144,-0.06731
38.32200,9.42144,-0.06725
38.42200,9.42144,-0.06716
38.52200,9.42144,-0.06708
38.62200,9.42144,-0.06702
38.72200,9.42144,-0.06690
38.82200,9.42144,-0.06685
38.92200,9.42144,-0.06678
39.02200,9.42144,-0.06670
39.12200,9.42144,-0.06663
39.22200,9.42144,-0.06651
39.32200,9.42144,-0.06646
39.42200,9.42144,-0.06639
39.52200,9.42144,-0.06634
39.62200,9.42144,-0.06625
39.72200,9.42144,-0.06615
39.82200,9.42144,-0.06608
39.92200,9.42144,-0.06602
40.02200,9.42144,-0.06593
40.12200,9.42144,-0.06589
40.22200,9.42144,-0.06583
40.32200,9.42144,-0.06576
40.42200,9.42144,-0.06568
40.52200,9.42144,-0.06558
40.62200,9.42144,-0.06553
40.72200,9.42144,-0.06546
40.82200,9.42144,-0.06539
40.92200,9.42144,-0.06532
41.02200,9.42144,-0.06523
41.12200,9.42144,-0.06518
41.22200,9.42144,-0.06508
41.32200,9.42144,-0.06503
41.42200,9.42144,-0.06494
41.52200,9.42144,-0.06490
41.62200,9.42144,-0.06483
41.72200,9.42144,-0.06475
41.82200,9.42144,-0.06469
41.92200,9.42144,-0.06460
42.02200,9.42144,-0.06453
42.12200,9.42144,-0.06450
42.22200,9.42144,-0.06440
42.32200,9.42144,-0.06437
42.42200,9.42144,-0.06428
42.52200,9.42144,-0.06418
42.62200,9.42144,-0.06414
42.72200,9.42144,-0.06411
42.82200,9.42144,-0.06402
42.92200,9.42144,-0.06395
43.02200,9.42144,-0.06391
43.12200,9.42144,-0.06381
43.22200,9.42144,-0.06373
43.32200,9.42144,-0.06366
43.42200,9.42144,-0.06362
43.52200,9.42144,-0.06356
43.62200,9.42144,-0.06349
43.72200,9.42144,-0.06345
43.82200,9.42144,-0.06336
43.92200,9.42144,-0.06328
44.02200,9.42144,-0.06320
44.12200,9.42144,-0.06314
44.22200,9.42144,-0.06310
44.32200,9.42144,-0.06305
44.42200,9.42144,-0.06295
44.52200,9.42144,-0.06290
44.62200,9.42144,-0.06285
44.72200,9.42144,-0.06280
44.82200,9.42144,-0.06271
44.92200,9.42144,-0.06265
45.02200,9.42144,-0.06256
45.12200,9.42144,-0.06254
45.22200,9.42144,-0.06241
45.32200,9.42144,-0.06243
45.42200,9.42144,-0.06237
45.52200,9.42144,-0.06231
45.62200,9.42144,-0.06224
45.72200,9.42144,-0.06218
45.82200,9.42144,-0.06209
45.92200,9.42144,-0.06205
46.02200,9.42144,-0.06198
46.12200,9.42144,-0.06192
46.22200,9.42144,-0.06188
46.32200,9.42144,-0.06184
46.42200,9.42144,-0.06173
46.52200,9.42144,-0.06169
46.62200,9.42144,-0.06162
46.72200,9.42144,-0.06160
46.82200,9.42144,-0.06148
46.92200,9.42144,-0.06146
47.02200,9.42144,-0.06140
47.12200,9.42144,-0.06134
47.22200,9.42144,-0.06128
47.32200,9.42144,-0.06119
47.42200,9.42144,-0.06114
47.52200,9.42144,-0.06108
47.62200,9.42144,-0.06105
47.72200,9.42144,-0.06099
47.82200,9.42144,-0.06094
47.92200,9.42144,-0.06083
48.02200,9.42144,-0.06080
48.12200,9.42144,-0.06074
48.22200,9.42144,-0.06070
48.32200,9.42144,-0.06063
48.42200,9.42144,-0.06057
48.52200,9.42144,-0.06049
48.62200,9.42144,-0.06043
48.72200,9.42144,-0.06040
48.82200,9.42144,-0.06036
48.92200,9.42144,-0.06029
49.02200,9.42144,-0.06023
49.12200,9.42144,-0.06018
49.22200,9.42144,-0.06015
49.32200,9.42144,-0.06010
49.42200,9.42144,-0.06003
49.52200,9.42144,-0.05996
49.62200,9.42144,-0.05990
49.72200,9.42144,-0.05981
49.82200,9.42144,-0.05980
49.92200,9.42144,-0.05974
50.02200,9.42144,-0.05970
50.12200,9.42144,-0.05963
50.22200,9.42144,-0.05958
50.32200,9.42144,-0.05956
50.42200,9.42144,-0.05946
50.52200,9.42144,-0.05940
50.62200,9.42144,-0.05937
50.72200,9.42144,-0.05930
50.82200,9.42144,-0.05928
50.92200,9.42144,-0.05916
51.02200,9.42144,-0.05911
51.12200,9.42144,-0.05908
51.22200,9.42144,-0.05903
51.32200,9.42144,-0.05900
51.42200,9.42144,-0.05894
51.52200,9.42144,-0.05888
51.62200,9.42144,-0.05878
51.72200,9.42144,-0.05878
51.82200,9.42144,-0.05871
51.92200,9.42144,-0.05867
52.02200,9.42144,-0.05860
52.12200,9.42144,-0.05856
52.22200,9.42144,-0.05850
52.32200,9.42144,-0.05846
52.42200,9.42144,-0.05839
52.52200,9.42144,-0.05832
52.62200,9.42144,-0.05828
52.72200,9.42144,-0.05827
52.82200,9.42144,-0.05821
52.92200,9.42144,-0.05811
53.02200,9.42144,-0.05808
53.12200,9.42144,-0.05801
53.22200,9.42144,-0.05797
53.32200,9.42144,-0.05795
53.42200,9.42144,-0.05788
53.52200,9.42144,-0.05779
53.62200,9.42144,-0.05779
53.72200,9.42144,-0.05775
53.82200,9.42144,-0.05768
53.92200,9.42144,-0.05762
54.02200,9.42144,-0.05757
54.12200,9.42144,-0.05754
54.22200,9.42144,-0.05745
54.32200,9.42144,-0.05745
54.42200,9.42144,-0.05740
54.52200,9.42144,-0.05734
54.62200,9.42144,-0.05728
54.72200,9.42144,-0.05724
54.82200,9.42144,-0.05718
54.92200,9.42144,-0.05712
55.02200,9.42144,-0.05709
55.12200,9.42144,-0.05703
55.22200,9.42144,-0.05695
55.32200,9.42144,-0.05693
55.42200,9.42144,-0.05690
55.52200,9.42144,-0.05684
55.62200,9.42144,-0.05682
55.72200,9.42144,-0.05676
55.82200,9.42144,-0.05670
55.92200,9.42144,-0.05665
56.02200,9.42144,-0.05657
56.12200,9.42144,-0.05658
56.22200,9.42144,-0.05649
56.32200,9.42144,-0.05647
56.42200,9.42144,-0.05642
56.52200,9.42144,-0.05634
56.62200,9.42144,-0.05632
56.72200,9.42144,-0.05628
56.82200,9.42144,-0.05624
56.92200,9.42144,-0.05620
57.02200,9.42144,-0.05615
57.12200,9.42144,-0.05606
57.22200,9.42144,-0.05603
57.32200,9.42144,-0.05600
57.42200,9.42144,-0.05600
57.52200,9.42144,-0.05592
57.62200,9.42144,-0.05584
57.72200,9.42144,-0.05582
57.82200,9.42144,-0.05580
57.92200,9.42144,-0.05573
58.02200,9.42144,-0.05569
58.12200,9.42144,-0.05563
58.22200,9.42144,-0.05560
58.32200,9.42144,-0.05555
58.42200,9.42144,-0.05548
58.52200,9.42144,-0.05545
58.62200,9.42144,-0.05540
58.72200,9.42144,-0.05539
58.82200,9.42144,-0.05533
58.92200,9.42144,-0.05527
59.02200,9.42144,-0.05521
59.12200,9.42144,-0.05518
59.22200,9.42144,-0.05516
59.32200,9.42144,-0.05512
59.42200,9.42144,-0.05507
59.52200,9.42144,-0.05503
59.62200,9.42144,-0.05494
59.72200,9.42144,-0.05494
59.82200,9.42144,-0.05485
59.92200,9.42144,-0.05484
60.02200,9.42144,-0.05480
60.12200,9.42144,-0.05474
60.22200,9.42144,-0.05473
60.32200,9.42144,-0.05467
60.42200,9.42144,-0.05462
60.52200,9.42144,-0.05458
60.62200,9.42144,-0.05451
60.72200,9.42144,-0.05451
60.82200,9.42144,-0.05448
60.92200,9.42144,-0.05443
61.02200,9.42144,-0.05436
61.12200,9.42144,-0.05434
61.22200,9.42144,-0.05431
61.32200,9.42144,-0.05429
61.42200,9.42144,-0.05421
61.52200,9.42144,-0.05416
61.62200,9.42144,-0.05414
61.72200,9.42144,-0.05410
61.82200,9.42144,-0.05405
61.92200,9.42144,-0.05400
62.02200,9.42144,-0.05395
62.12200,9.42144,-0.05391
62.22200,9.42144,-0.05386
62.32200,9.42144,-0.05382
62.42200,9.42144,-0.05375
62.52200,9.42144,-0.05370
62.62200,9.42144,-0.05371
62.72200,9.42144,-0.05363
62.82200,9.42144,-0.05360
62.92200,9.42144,-0.05358
63.02200,9.42144,-0.05354
63.12200,9.42144,-0.05345
63.22200,9.42144,-0.05343
63.32200,9.42144,-0.05338
63.42200,9.42144,-0.05335
63.52200,9.42144,-0.05331
63.62200,9.42144,-0.05323
63.72200,9.42144,-0.05319
63.82200,9.42144,-0.05321
63.92200,9.42144,-0.05312
64.02200,9.42144,-0.05309
64.12200,9.42144,-0.05305
64.22200,9.42144,-0.05304
64.32200,9.42144,-0.05300
64.42200,9.42144,-0.05295
64.52200,9.42144,-0.05291
64.62200,9.42144,-0.05285
64.72200,9.42144,-0.05281
64.82200,9.42144,-0.05281
64.92200,9.42144,-0.05272
65.02200,9.42144,-0.05270
65.12200,9.42144,-0.05266
65.22200,9.42144,-0.05263
65.32200,9.42144,-0.05258
65.42200,9.42144,-0.05256
65.52200,9.42144,-0.05249
65.62200,9.42144,-0.05244
65.72200,9.42144,-0.05242
65.82200,9.42144,-0.05238
65.92200,9.42144,-0.05235
66.02200,9.42144,-0.05232
66.12200,9.42144,-0.05225
66.22200,9.42144,-0.05224
66.32200,9.42144,-0.05220
66.42200,9.42144,-0.05212
66.52200,9.42144,-0.05213
66.62200,9.42144,-0.05206
66.72200,9.42144,-0.05204
66.82200,9.42144,-0.05202
66.92200,9.42144,-0.05198
67.02200,9.42144,-0.05195
67.12200,9.42144,-0.05189
67.22200,9.42144,-0.05187
67.32200,9.42144,-0.05182
67.42200,9.42144,-0.05180
67.52200,9.42144,-0.05179
67.62200,9.42144,-0.05171
67.72200,9.42144,-0.05167
67.82200,9.42144,-0.05163
67.92200,9.42144,-0.05159
68.02200,9.42144,-0.05155
68.12200,9.42144,-0.05155
68.22200,9.42144,-0.05154
68.32200,9.42144,-0.05149
68.42200,9.42144,-0.05143
68.52200,9.42144,-0.05138
68.62200,9.42144,-0.05137
68.72200,9.42144,-0.05130
68.82200,9.42144,-0.05128
68.92200,9.42144,-0.05124
69.02200,9.42144,-0.05121
69.12200,9.42144,-0.05118
69.22200,9.42144,-0.05117
69.32200,9.42144,-0.05114
69.42200,9.42144,-0.05111
69.52200,9.42144,-0.05109
69.62200,9.42144,-0.05101
69.72200,9.42144,-0.05098
69.82200,9.42144,-0.05094
69.92200,9.42144,-0.05088
70.02200,9.42144,-0.05087
70.12200,9.42144,-0.05086
70.22200,9.42144,-0.05080
70.32200,9.42144,-0.05075
70.42200,9.42144,-0.05071
70.52200,9.42144,-0.05065
70.62200,9.42144,-0.05063
70.72200,9.42144,-0.05062
70.82200,9.42144,-0.05060
70.92200,9.42144,-0.05056
71.02200,9.42144,-0.05053
71.12200,9.42144,-0.05050
71.22200,9.42144,-0.05047
71.32200,9.42144,-0.05046
71.42200,9.42144,-0.05038
71.52200,9.42144,-0.05034
71.62200,9.42144,-0.05028
71.72200,9.42144,-0.05029
71.82200,9.42144,-0.05024
71.92200,9.42144,-0.05019
72.02200,9.42144,-0.05015
72.12200,9.42144,-0.05014
72.22200,9.42144,-0.05010
72.32200,9.42144,-0.05006
72.42200,9.42144,-0.05002
72.52200,9.42144,-0.05000
72.62200,9.42144,-0.04995
72.72200,9.42144,-0.04988
72.82200,9.42144,-0.04990
72.92200,9.42144,-0.04987
73.02200,9.42144,-0.04981
73.12200,9.42144,-0.04976
73.22200,9.42144,-0.04977
73.32200,9.42144,-0.04967
73.42200,9.42144,-0.04967
73.52200,9.42144,-0.04965
73.62200,9.42144,-0.04963
73.72200,9.42144,-0.04963
73.82200,9.42144,-0.04956
73.92200,9.42144,-0.04957
74.02200,9.42144,-0.04945
74.12200,9.42144,-0.04947
74.22200,9.42144,-0.04944
74.32200,9.42144,-0.04937
74.42200,9.42144,-0.04934
74.52200,9.42144,-0.04933
74.62200,9.42144,-0.04930
74.72200,9.42144,-0.04923
74.82200,9.42144,-0.04922
74.92200,9.42144,-0.04923
75.02200,9.42144,-0.04915
75.12200,9.42144,-0.04912
75.22200,9.42144,-0.04911
75.32200,9.42144,-0.04907
75.42200,9.42144,-0.04901
75.52200,9.42144,-0.04901
75.62200,9.42144,-0.04896
75.72200,9.42144,-0.04894
75.82200,9.42144,-0.04889
75.92200,9.42144,-0.04886
76.02200,9.42144,-0.04883
76.12200,9.42144,-0.04881
76.22200,9.42144,-0.04876
76.32200,9.42144,-0.04874
76.42200,9.42144,-0.04871
76.52200,9.42144,-0.04869
76.62200,9.42144,-0.04864
76.72200,9.42144,-0.04862
76.82200,9.42144,-0.04861
